;Scopy version,438f138
;Exported on,samedi décembre 14/12/2024
;Device,M2K
;Nr of samples,3200
;Sample rate,100000
;Tool,Oscilloscope
;Additional Information,
Sample,Time(S),CH1(V)
0,-0.016,0.293668
1,-0.01599,0.293668
2,-0.01598,0.293668
3,-0.01597,0.293668
4,-0.01596,0.293668
5,-0.01595,0.293668
6,-0.01594,0.293668
7,-0.01593,0.293668
8,-0.01592,0.293668
9,-0.01591,0.295255
10,-0.0159,0.293668
11,-0.01589,0.293668
12,-0.01588,0.293668
13,-0.01587,0.293668
14,-0.01586,0.293668
15,-0.01585,0.293668
16,-0.01584,0.293668
17,-0.01583,0.293668
18,-0.01582,0.293668
19,-0.01581,0.293668
20,-0.0158,0.293668
21,-0.01579,0.293668
22,-0.01578,0.293668
23,-0.01577,0.293668
24,-0.01576,0.293668
25,-0.01575,0.293668
26,-0.01574,0.293668
27,-0.01573,0.293668
28,-0.01572,0.293668
29,-0.01571,0.293668
30,-0.0157,0.293668
31,-0.01569,0.293668
32,-0.01568,0.293668
33,-0.01567,0.293668
34,-0.01566,0.293668
35,-0.01565,0.293668
36,-0.01564,0.293668
37,-0.01563,0.293668
38,-0.01562,0.293668
39,-0.01561,0.293668
40,-0.0156,0.293668
41,-0.01559,0.293668
42,-0.01558,0.293668
43,-0.01557,0.293668
44,-0.01556,0.293668
45,-0.01555,0.293668
46,-0.01554,0.293668
47,-0.01553,0.293668
48,-0.01552,0.293668
49,-0.01551,0.293668
50,-0.0155,0.293668
51,-0.01549,0.293668
52,-0.01548,0.293668
53,-0.01547,0.293668
54,-0.01546,0.293668
55,-0.01545,0.293668
56,-0.01544,0.293668
57,-0.01543,0.293668
58,-0.01542,0.293668
59,-0.01541,0.293668
60,-0.0154,0.293668
61,-0.01539,0.293668
62,-0.01538,0.293668
63,-0.01537,0.293668
64,-0.01536,0.293668
65,-0.01535,0.293668
66,-0.01534,0.293668
67,-0.01533,0.293668
68,-0.01532,0.293668
69,-0.01531,0.293668
70,-0.0153,0.293668
71,-0.01529,0.293668
72,-0.01528,0.293668
73,-0.01527,0.293668
74,-0.01526,0.293668
75,-0.01525,0.293668
76,-0.01524,0.293668
77,-0.01523,0.293668
78,-0.01522,0.295255
79,-0.01521,0.295255
80,-0.0152,0.295255
81,-0.01519,0.295255
82,-0.01518,0.293668
83,-0.01517,0.296842
84,-0.01516,0.295255
85,-0.01515,0.295255
86,-0.01514,0.295255
87,-0.01513,0.295255
88,-0.01512,0.295255
89,-0.01511,0.295255
90,-0.0151,0.295255
91,-0.01509,0.295255
92,-0.01508,0.295255
93,-0.01507,0.296842
94,-0.01506,0.293668
95,-0.01505,0.293668
96,-0.01504,0.293668
97,-0.01503,0.293668
98,-0.01502,0.293668
99,-0.01501,0.293668
100,-0.015,0.293668
101,-0.01499,0.293668
102,-0.01498,0.293668
103,-0.01497,0.293668
104,-0.01496,0.293668
105,-0.01495,0.293668
106,-0.01494,0.293668
107,-0.01493,0.293668
108,-0.01492,0.293668
109,-0.01491,0.293668
110,-0.0149,0.293668
111,-0.01489,0.293668
112,-0.01488,0.296842
113,-0.01487,0.293668
114,-0.01486,0.293668
115,-0.01485,0.293668
116,-0.01484,0.293668
117,-0.01483,0.293668
118,-0.01482,0.293668
119,-0.01481,0.293668
120,-0.0148,0.293668
121,-0.01479,0.293668
122,-0.01478,0.293668
123,-0.01477,0.293668
124,-0.01476,0.293668
125,-0.01475,0.293668
126,-0.01474,0.293668
127,-0.01473,0.293668
128,-0.01472,0.293668
129,-0.01471,0.293668
130,-0.0147,0.293668
131,-0.01469,0.293668
132,-0.01468,0.293668
133,-0.01467,0.293668
134,-0.01466,0.293668
135,-0.01465,0.293668
136,-0.01464,0.293668
137,-0.01463,0.293668
138,-0.01462,0.293668
139,-0.01461,0.293668
140,-0.0146,0.293668
141,-0.01459,0.293668
142,-0.01458,0.293668
143,-0.01457,0.293668
144,-0.01456,0.293668
145,-0.01455,0.293668
146,-0.01454,0.293668
147,-0.01453,0.293668
148,-0.01452,0.293668
149,-0.01451,0.293668
150,-0.0145,0.293668
151,-0.01449,0.293668
152,-0.01448,0.293668
153,-0.01447,0.293668
154,-0.01446,0.293668
155,-0.01445,0.293668
156,-0.01444,0.293668
157,-0.01443,0.293668
158,-0.01442,0.293668
159,-0.01441,0.293668
160,-0.0144,0.293668
161,-0.01439,0.293668
162,-0.01438,0.293668
163,-0.01437,0.293668
164,-0.01436,0.293668
165,-0.01435,0.293668
166,-0.01434,0.293668
167,-0.01433,0.293668
168,-0.01432,0.293668
169,-0.01431,0.293668
170,-0.0143,0.293668
171,-0.01429,0.293668
172,-0.01428,0.293668
173,-0.01427,0.293668
174,-0.01426,0.293668
175,-0.01425,0.293668
176,-0.01424,0.293668
177,-0.01423,0.293668
178,-0.01422,0.293668
179,-0.01421,0.296842
180,-0.0142,0.295255
181,-0.01419,0.295255
182,-0.01418,0.295255
183,-0.01417,0.293668
184,-0.01416,0.293668
185,-0.01415,0.293668
186,-0.01414,0.293668
187,-0.01413,0.293668
188,-0.01412,0.293668
189,-0.01411,0.293668
190,-0.0141,0.293668
191,-0.01409,0.293668
192,-0.01408,0.293668
193,-0.01407,0.293668
194,-0.01406,0.293668
195,-0.01405,0.293668
196,-0.01404,0.293668
197,-0.01403,0.293668
198,-0.01402,0.293668
199,-0.01401,0.293668
200,-0.014,0.293668
201,-0.01399,0.293668
202,-0.01398,0.293668
203,-0.01397,0.293668
204,-0.01396,0.293668
205,-0.01395,0.293668
206,-0.01394,0.293668
207,-0.01393,0.293668
208,-0.01392,0.293668
209,-0.01391,0.293668
210,-0.0139,0.293668
211,-0.01389,0.293668
212,-0.01388,0.293668
213,-0.01387,0.293668
214,-0.01386,0.293668
215,-0.01385,0.293668
216,-0.01384,0.293668
217,-0.01383,0.293668
218,-0.01382,0.293668
219,-0.01381,0.293668
220,-0.0138,0.293668
221,-0.01379,0.293668
222,-0.01378,0.293668
223,-0.01377,0.293668
224,-0.01376,0.293668
225,-0.01375,0.293668
226,-0.01374,0.293668
227,-0.01373,0.293668
228,-0.01372,0.293668
229,-0.01371,0.293668
230,-0.0137,0.293668
231,-0.01369,0.293668
232,-0.01368,0.293668
233,-0.01367,0.293668
234,-0.01366,0.293668
235,-0.01365,0.293668
236,-0.01364,0.293668
237,-0.01363,0.293668
238,-0.01362,0.293668
239,-0.01361,0.293668
240,-0.0136,0.293668
241,-0.01359,0.293668
242,-0.01358,0.293668
243,-0.01357,0.293668
244,-0.01356,0.293668
245,-0.01355,0.293668
246,-0.01354,0.293668
247,-0.01353,0.293668
248,-0.01352,0.293668
249,-0.01351,0.293668
250,-0.0135,0.293668
251,-0.01349,0.293668
252,-0.01348,0.293668
253,-0.01347,0.293668
254,-0.01346,0.293668
255,-0.01345,0.293668
256,-0.01344,0.293668
257,-0.01343,0.293668
258,-0.01342,0.293668
259,-0.01341,0.293668
260,-0.0134,0.293668
261,-0.01339,0.293668
262,-0.01338,0.293668
263,-0.01337,0.293668
264,-0.01336,0.293668
265,-0.01335,0.293668
266,-0.01334,0.293668
267,-0.01333,0.293668
268,-0.01332,0.293668
269,-0.01331,0.293668
270,-0.0133,0.293668
271,-0.01329,0.293668
272,-0.01328,0.293668
273,-0.01327,0.293668
274,-0.01326,0.293668
275,-0.01325,0.293668
276,-0.01324,0.293668
277,-0.01323,0.293668
278,-0.01322,0.293668
279,-0.01321,0.293668
280,-0.0132,0.293668
281,-0.01319,0.293668
282,-0.01318,0.293668
283,-0.01317,0.293668
284,-0.01316,0.293668
285,-0.01315,0.293668
286,-0.01314,0.293668
287,-0.01313,0.293668
288,-0.01312,0.293668
289,-0.01311,0.293668
290,-0.0131,0.293668
291,-0.01309,0.293668
292,-0.01308,0.293668
293,-0.01307,0.293668
294,-0.01306,0.293668
295,-0.01305,0.293668
296,-0.01304,0.293668
297,-0.01303,0.293668
298,-0.01302,0.293668
299,-0.01301,0.293668
300,-0.013,0.293668
301,-0.01299,0.293668
302,-0.01298,0.293668
303,-0.01297,0.293668
304,-0.01296,0.293668
305,-0.01295,0.293668
306,-0.01294,0.293668
307,-0.01293,0.293668
308,-0.01292,0.293668
309,-0.01291,0.293668
310,-0.0129,0.293668
311,-0.01289,0.293668
312,-0.01288,0.293668
313,-0.01287,0.293668
314,-0.01286,0.293668
315,-0.01285,0.293668
316,-0.01284,0.293668
317,-0.01283,0.293668
318,-0.01282,0.293668
319,-0.01281,0.293668
320,-0.0128,0.293668
321,-0.01279,0.293668
322,-0.01278,0.293668
323,-0.01277,0.293668
324,-0.01276,0.293668
325,-0.01275,0.293668
326,-0.01274,0.293668
327,-0.01273,0.293668
328,-0.01272,0.293668
329,-0.01271,0.293668
330,-0.0127,0.293668
331,-0.01269,0.293668
332,-0.01268,0.293668
333,-0.01267,0.293668
334,-0.01266,0.293668
335,-0.01265,0.293668
336,-0.01264,0.293668
337,-0.01263,0.293668
338,-0.01262,0.293668
339,-0.01261,0.293668
340,-0.0126,0.293668
341,-0.01259,0.293668
342,-0.01258,0.293668
343,-0.01257,0.293668
344,-0.01256,0.293668
345,-0.01255,0.293668
346,-0.01254,0.293668
347,-0.01253,0.293668
348,-0.01252,0.293668
349,-0.01251,0.293668
350,-0.0125,0.293668
351,-0.01249,0.293668
352,-0.01248,0.293668
353,-0.01247,0.293668
354,-0.01246,0.293668
355,-0.01245,0.293668
356,-0.01244,0.293668
357,-0.01243,0.293668
358,-0.01242,0.293668
359,-0.01241,0.293668
360,-0.0124,0.293668
361,-0.01239,0.293668
362,-0.01238,0.293668
363,-0.01237,0.293668
364,-0.01236,0.293668
365,-0.01235,0.293668
366,-0.01234,0.293668
367,-0.01233,0.293668
368,-0.01232,0.293668
369,-0.01231,0.293668
370,-0.0123,0.293668
371,-0.01229,0.293668
372,-0.01228,0.293668
373,-0.01227,0.293668
374,-0.01226,0.293668
375,-0.01225,0.293668
376,-0.01224,0.293668
377,-0.01223,0.293668
378,-0.01222,0.293668
379,-0.01221,0.293668
380,-0.0122,0.293668
381,-0.01219,0.295255
382,-0.01218,0.295255
383,-0.01217,0.293668
384,-0.01216,0.293668
385,-0.01215,0.293668
386,-0.01214,0.293668
387,-0.01213,0.293668
388,-0.01212,0.293668
389,-0.01211,0.293668
390,-0.0121,0.293668
391,-0.01209,0.293668
392,-0.01208,0.293668
393,-0.01207,0.293668
394,-0.01206,0.293668
395,-0.01205,0.293668
396,-0.01204,0.293668
397,-0.01203,0.293668
398,-0.01202,0.293668
399,-0.01201,0.293668
400,-0.012,0.293668
401,-0.01199,0.293668
402,-0.01198,0.293668
403,-0.01197,0.293668
404,-0.01196,0.293668
405,-0.01195,0.293668
406,-0.01194,0.293668
407,-0.01193,0.293668
408,-0.01192,0.293668
409,-0.01191,0.293668
410,-0.0119,0.293668
411,-0.01189,0.293668
412,-0.01188,0.293668
413,-0.01187,0.293668
414,-0.01186,0.293668
415,-0.01185,0.293668
416,-0.01184,0.293668
417,-0.01183,0.293668
418,-0.01182,0.293668
419,-0.01181,0.293668
420,-0.0118,0.293668
421,-0.01179,0.293668
422,-0.01178,0.293668
423,-0.01177,0.293668
424,-0.01176,0.293668
425,-0.01175,0.293668
426,-0.01174,0.293668
427,-0.01173,0.293668
428,-0.01172,0.293668
429,-0.01171,0.293668
430,-0.0117,0.293668
431,-0.01169,0.293668
432,-0.01168,0.293668
433,-0.01167,0.293668
434,-0.01166,0.293668
435,-0.01165,0.293668
436,-0.01164,0.293668
437,-0.01163,0.293668
438,-0.01162,0.293668
439,-0.01161,0.293668
440,-0.0116,0.293668
441,-0.01159,0.293668
442,-0.01158,0.293668
443,-0.01157,0.293668
444,-0.01156,0.293668
445,-0.01155,0.293668
446,-0.01154,0.293668
447,-0.01153,0.293668
448,-0.01152,0.293668
449,-0.01151,0.293668
450,-0.0115,0.293668
451,-0.01149,0.293668
452,-0.01148,0.293668
453,-0.01147,0.293668
454,-0.01146,0.293668
455,-0.01145,0.293668
456,-0.01144,0.293668
457,-0.01143,0.293668
458,-0.01142,0.293668
459,-0.01141,0.293668
460,-0.0114,0.293668
461,-0.01139,0.293668
462,-0.01138,0.293668
463,-0.01137,0.293668
464,-0.01136,0.293668
465,-0.01135,0.293668
466,-0.01134,0.293668
467,-0.01133,0.293668
468,-0.01132,0.293668
469,-0.01131,0.293668
470,-0.0113,0.293668
471,-0.01129,0.293668
472,-0.01128,0.293668
473,-0.01127,0.293668
474,-0.01126,0.293668
475,-0.01125,0.293668
476,-0.01124,0.293668
477,-0.01123,0.293668
478,-0.01122,0.293668
479,-0.01121,0.295255
480,-0.0112,0.295255
481,-0.01119,0.293668
482,-0.01118,0.293668
483,-0.01117,0.293668
484,-0.01116,0.293668
485,-0.01115,0.293668
486,-0.01114,0.293668
487,-0.01113,0.293668
488,-0.01112,0.293668
489,-0.01111,0.293668
490,-0.0111,0.293668
491,-0.01109,0.293668
492,-0.01108,0.293668
493,-0.01107,0.293668
494,-0.01106,0.293668
495,-0.01105,0.293668
496,-0.01104,0.293668
497,-0.01103,0.293668
498,-0.01102,0.293668
499,-0.01101,0.293668
500,-0.011,0.293668
501,-0.01099,0.293668
502,-0.01098,0.293668
503,-0.01097,0.293668
504,-0.01096,0.293668
505,-0.01095,0.293668
506,-0.01094,0.293668
507,-0.01093,0.293668
508,-0.01092,0.293668
509,-0.01091,0.293668
510,-0.0109,0.293668
511,-0.01089,0.293668
512,-0.01088,0.293668
513,-0.01087,0.293668
514,-0.01086,0.293668
515,-0.01085,0.293668
516,-0.01084,0.293668
517,-0.01083,0.293668
518,-0.01082,0.293668
519,-0.01081,0.293668
520,-0.0108,0.293668
521,-0.01079,0.293668
522,-0.01078,0.293668
523,-0.01077,0.293668
524,-0.01076,0.293668
525,-0.01075,0.293668
526,-0.01074,0.293668
527,-0.01073,0.293668
528,-0.01072,0.293668
529,-0.01071,0.293668
530,-0.0107,0.293668
531,-0.01069,0.293668
532,-0.01068,0.293668
533,-0.01067,0.293668
534,-0.01066,0.293668
535,-0.01065,0.293668
536,-0.01064,0.293668
537,-0.01063,0.293668
538,-0.01062,0.293668
539,-0.01061,0.293668
540,-0.0106,0.293668
541,-0.01059,0.293668
542,-0.01058,0.293668
543,-0.01057,0.293668
544,-0.01056,0.293668
545,-0.01055,0.293668
546,-0.01054,0.293668
547,-0.01053,0.293668
548,-0.01052,0.293668
549,-0.01051,0.293668
550,-0.0105,0.293668
551,-0.01049,0.293668
552,-0.01048,0.293668
553,-0.01047,0.293668
554,-0.01046,0.293668
555,-0.01045,0.293668
556,-0.01044,0.293668
557,-0.01043,0.293668
558,-0.01042,0.293668
559,-0.01041,0.293668
560,-0.0104,0.293668
561,-0.01039,0.293668
562,-0.01038,0.293668
563,-0.01037,0.293668
564,-0.01036,0.293668
565,-0.01035,0.293668
566,-0.01034,0.293668
567,-0.01033,0.293668
568,-0.01032,0.293668
569,-0.01031,0.293668
570,-0.0103,0.293668
571,-0.01029,0.293668
572,-0.01028,0.293668
573,-0.01027,0.300016
574,-0.01026,0.306364
575,-0.01025,0.311125
576,-0.01024,0.315887
577,-0.01023,0.319061
578,-0.01022,0.323822
579,-0.01021,0.326996
580,-0.0102,0.331757
581,-0.01019,0.338105
582,-0.01018,0.341279
583,-0.01017,0.344453
584,-0.01016,0.347627
585,-0.01015,0.353976
586,-0.01014,0.35715
587,-0.01013,0.360324
588,-0.01012,0.363498
589,-0.01011,0.365085
590,-0.0101,0.369846
591,-0.01009,0.37302
592,-0.01008,0.374607
593,-0.01007,0.379368
594,-0.01006,0.382542
595,-0.01005,0.385717
596,-0.01004,0.388891
597,-0.01003,0.390478
598,-0.01002,0.393652
599,-0.01001,0.395239
600,-0.01,0.4
601,-0.00999,0.401587
602,-0.00998,0.404761
603,-0.00997,0.407935
604,-0.00996,0.409522
605,-0.00995,0.412696
606,-0.00994,0.414283
607,-0.00993,0.417458
608,-0.00992,0.420632
609,-0.00991,0.423806
610,-0.0099,0.42698
611,-0.00989,0.428567
612,-0.00988,0.431741
613,-0.00987,0.433328
614,-0.00986,0.436502
615,-0.00985,0.438089
616,-0.00984,0.441263
617,-0.00983,0.44285
618,-0.00982,0.444437
619,-0.00981,0.447611
620,-0.0098,0.450785
621,-0.00979,0.45396
622,-0.00978,0.455547
623,-0.00977,0.458721
624,-0.00976,0.460308
625,-0.00975,0.463482
626,-0.00974,0.466656
627,-0.00973,0.468243
628,-0.00972,0.473004
629,-0.00971,0.474591
630,-0.0097,0.477765
631,-0.00969,0.480939
632,-0.00968,0.482526
633,-0.00967,0.4857
634,-0.00966,0.488875
635,-0.00965,0.488875
636,-0.00964,0.490462
637,-0.00963,0.495223
638,-0.00962,0.495223
639,-0.00961,0.498397
640,-0.0096,0.501571
641,-0.00959,0.501571
642,-0.00958,0.504745
643,-0.00957,0.507919
644,-0.00956,0.507919
645,-0.00955,0.509506
646,-0.00954,0.511093
647,-0.00953,0.51268
648,-0.00952,0.511093
649,-0.00951,0.514267
650,-0.0095,0.514267
651,-0.00949,0.515854
652,-0.00948,0.515854
653,-0.00947,0.515854
654,-0.00946,0.519028
655,-0.00945,0.522203
656,-0.00944,0.525377
657,-0.00943,0.528551
658,-0.00942,0.530138
659,-0.00941,0.534899
660,-0.0094,0.534899
661,-0.00939,0.538073
662,-0.00938,0.542834
663,-0.00937,0.542834
664,-0.00936,0.546008
665,-0.00935,0.547595
666,-0.00934,0.550769
667,-0.00933,0.552356
668,-0.00932,0.555531
669,-0.00931,0.555531
670,-0.0093,0.557118
671,-0.00929,0.560292
672,-0.00928,0.560292
673,-0.00927,0.560292
674,-0.00926,0.563466
675,-0.00925,0.563466
676,-0.00924,0.56664
677,-0.00923,0.568227
678,-0.00922,0.568227
679,-0.00921,0.569814
680,-0.0092,0.569814
681,-0.00919,0.571401
682,-0.00918,0.571401
683,-0.00917,0.572988
684,-0.00916,0.574575
685,-0.00915,0.574575
686,-0.00914,0.576162
687,-0.00913,0.576162
688,-0.00912,0.576162
689,-0.00911,0.577749
690,-0.0091,0.577749
691,-0.00909,0.577749
692,-0.00908,0.579336
693,-0.00907,0.579336
694,-0.00906,0.580923
695,-0.00905,0.580923
696,-0.00904,0.58251
697,-0.00903,0.58251
698,-0.00902,0.58251
699,-0.00901,0.584097
700,-0.009,0.584097
701,-0.00899,0.584097
702,-0.00898,0.584097
703,-0.00897,0.585684
704,-0.00896,0.585684
705,-0.00895,0.585684
706,-0.00894,0.585684
707,-0.00893,0.585684
708,-0.00892,0.585684
709,-0.00891,0.585684
710,-0.0089,0.585684
711,-0.00889,0.584097
712,-0.00888,0.584097
713,-0.00887,0.584097
714,-0.00886,0.584097
715,-0.00885,0.584097
716,-0.00884,0.584097
717,-0.00883,0.584097
718,-0.00882,0.584097
719,-0.00881,0.584097
720,-0.0088,0.584097
721,-0.00879,0.584097
722,-0.00878,0.584097
723,-0.00877,0.584097
724,-0.00876,0.58251
725,-0.00875,0.58251
726,-0.00874,0.58251
727,-0.00873,0.58251
728,-0.00872,0.58251
729,-0.00871,0.58251
730,-0.0087,0.58251
731,-0.00869,0.58251
732,-0.00868,0.58251
733,-0.00867,0.58251
734,-0.00866,0.580923
735,-0.00865,0.580923
736,-0.00864,0.580923
737,-0.00863,0.580923
738,-0.00862,0.580923
739,-0.00861,0.580923
740,-0.0086,0.580923
741,-0.00859,0.580923
742,-0.00858,0.580923
743,-0.00857,0.580923
744,-0.00856,0.580923
745,-0.00855,0.580923
746,-0.00854,0.580923
747,-0.00853,0.580923
748,-0.00852,0.58251
749,-0.00851,0.580923
750,-0.0085,0.580923
751,-0.00849,0.580923
752,-0.00848,0.580923
753,-0.00847,0.580923
754,-0.00846,0.580923
755,-0.00845,0.580923
756,-0.00844,0.580923
757,-0.00843,0.580923
758,-0.00842,0.580923
759,-0.00841,0.579336
760,-0.0084,0.579336
761,-0.00839,0.579336
762,-0.00838,0.579336
763,-0.00837,0.579336
764,-0.00836,0.579336
765,-0.00835,0.579336
766,-0.00834,0.579336
767,-0.00833,0.579336
768,-0.00832,0.579336
769,-0.00831,0.577749
770,-0.0083,0.577749
771,-0.00829,0.577749
772,-0.00828,0.577749
773,-0.00827,0.577749
774,-0.00826,0.577749
775,-0.00825,0.576162
776,-0.00824,0.576162
777,-0.00823,0.574575
778,-0.00822,0.574575
779,-0.00821,0.574575
780,-0.0082,0.572988
781,-0.00819,0.572988
782,-0.00818,0.571401
783,-0.00817,0.571401
784,-0.00816,0.571401
785,-0.00815,0.569814
786,-0.00814,0.569814
787,-0.00813,0.569814
788,-0.00812,0.568227
789,-0.00811,0.568227
790,-0.0081,0.568227
791,-0.00809,0.56664
792,-0.00808,0.56664
793,-0.00807,0.56664
794,-0.00806,0.563466
795,-0.00805,0.563466
796,-0.00804,0.563466
797,-0.00803,0.563466
798,-0.00802,0.561879
799,-0.00801,0.561879
800,-0.008,0.561879
801,-0.00799,0.561879
802,-0.00798,0.561879
803,-0.00797,0.560292
804,-0.00796,0.560292
805,-0.00795,0.560292
806,-0.00794,0.560292
807,-0.00793,0.561879
808,-0.00792,0.561879
809,-0.00791,0.561879
810,-0.0079,0.561879
811,-0.00789,0.561879
812,-0.00788,0.560292
813,-0.00787,0.560292
814,-0.00786,0.560292
815,-0.00785,0.560292
816,-0.00784,0.560292
817,-0.00783,0.561879
818,-0.00782,0.561879
819,-0.00781,0.561879
820,-0.0078,0.561879
821,-0.00779,0.561879
822,-0.00778,0.560292
823,-0.00777,0.560292
824,-0.00776,0.560292
825,-0.00775,0.560292
826,-0.00774,0.560292
827,-0.00773,0.560292
828,-0.00772,0.561879
829,-0.00771,0.561879
830,-0.0077,0.560292
831,-0.00769,0.560292
832,-0.00768,0.560292
833,-0.00767,0.560292
834,-0.00766,0.560292
835,-0.00765,0.560292
836,-0.00764,0.560292
837,-0.00763,0.560292
838,-0.00762,0.561879
839,-0.00761,0.561879
840,-0.0076,0.560292
841,-0.00759,0.560292
842,-0.00758,0.560292
843,-0.00757,0.560292
844,-0.00756,0.560292
845,-0.00755,0.560292
846,-0.00754,0.560292
847,-0.00753,0.560292
848,-0.00752,0.561879
849,-0.00751,0.561879
850,-0.0075,0.560292
851,-0.00749,0.560292
852,-0.00748,0.560292
853,-0.00747,0.560292
854,-0.00746,0.560292
855,-0.00745,0.560292
856,-0.00744,0.560292
857,-0.00743,0.560292
858,-0.00742,0.561879
859,-0.00741,0.561879
860,-0.0074,0.560292
861,-0.00739,0.560292
862,-0.00738,0.560292
863,-0.00737,0.560292
864,-0.00736,0.560292
865,-0.00735,0.558705
866,-0.00734,0.558705
867,-0.00733,0.560292
868,-0.00732,0.561879
869,-0.00731,0.561879
870,-0.0073,0.560292
871,-0.00729,0.560292
872,-0.00728,0.560292
873,-0.00727,0.560292
874,-0.00726,0.558705
875,-0.00725,0.561879
876,-0.00724,0.558705
877,-0.00723,0.560292
878,-0.00722,0.561879
879,-0.00721,0.561879
880,-0.0072,0.561879
881,-0.00719,0.561879
882,-0.00718,0.561879
883,-0.00717,0.560292
884,-0.00716,0.560292
885,-0.00715,0.560292
886,-0.00714,0.560292
887,-0.00713,0.560292
888,-0.00712,0.561879
889,-0.00711,0.561879
890,-0.0071,0.561879
891,-0.00709,0.561879
892,-0.00708,0.560292
893,-0.00707,0.560292
894,-0.00706,0.560292
895,-0.00705,0.560292
896,-0.00704,0.560292
897,-0.00703,0.560292
898,-0.00702,0.560292
899,-0.00701,0.561879
900,-0.007,0.561879
901,-0.00699,0.561879
902,-0.00698,0.560292
903,-0.00697,0.560292
904,-0.00696,0.560292
905,-0.00695,0.560292
906,-0.00694,0.560292
907,-0.00693,0.560292
908,-0.00692,0.560292
909,-0.00691,0.561879
910,-0.0069,0.561879
911,-0.00689,0.560292
912,-0.00688,0.560292
913,-0.00687,0.560292
914,-0.00686,0.560292
915,-0.00685,0.560292
916,-0.00684,0.560292
917,-0.00683,0.560292
918,-0.00682,0.560292
919,-0.00681,0.563466
920,-0.0068,0.560292
921,-0.00679,0.560292
922,-0.00678,0.560292
923,-0.00677,0.560292
924,-0.00676,0.560292
925,-0.00675,0.558705
926,-0.00674,0.558705
927,-0.00673,0.558705
928,-0.00672,0.560292
929,-0.00671,0.560292
930,-0.0067,0.560292
931,-0.00669,0.560292
932,-0.00668,0.560292
933,-0.00667,0.560292
934,-0.00666,0.558705
935,-0.00665,0.558705
936,-0.00664,0.558705
937,-0.00663,0.558705
938,-0.00662,0.558705
939,-0.00661,0.560292
940,-0.0066,0.560292
941,-0.00659,0.560292
942,-0.00658,0.560292
943,-0.00657,0.558705
944,-0.00656,0.558705
945,-0.00655,0.558705
946,-0.00654,0.558705
947,-0.00653,0.558705
948,-0.00652,0.558705
949,-0.00651,0.560292
950,-0.0065,0.560292
951,-0.00649,0.560292
952,-0.00648,0.560292
953,-0.00647,0.558705
954,-0.00646,0.558705
955,-0.00645,0.558705
956,-0.00644,0.558705
957,-0.00643,0.558705
958,-0.00642,0.558705
959,-0.00641,0.560292
960,-0.0064,0.560292
961,-0.00639,0.560292
962,-0.00638,0.560292
963,-0.00637,0.560292
964,-0.00636,0.558705
965,-0.00635,0.558705
966,-0.00634,0.558705
967,-0.00633,0.558705
968,-0.00632,0.558705
969,-0.00631,0.560292
970,-0.0063,0.560292
971,-0.00629,0.560292
972,-0.00628,0.560292
973,-0.00627,0.560292
974,-0.00626,0.558705
975,-0.00625,0.558705
976,-0.00624,0.558705
977,-0.00623,0.558705
978,-0.00622,0.558705
979,-0.00621,0.560292
980,-0.0062,0.560292
981,-0.00619,0.560292
982,-0.00618,0.560292
983,-0.00617,0.560292
984,-0.00616,0.560292
985,-0.00615,0.560292
986,-0.00614,0.558705
987,-0.00613,0.558705
988,-0.00612,0.560292
989,-0.00611,0.560292
990,-0.0061,0.561879
991,-0.00609,0.561879
992,-0.00608,0.561879
993,-0.00607,0.560292
994,-0.00606,0.560292
995,-0.00605,0.560292
996,-0.00604,0.560292
997,-0.00603,0.560292
998,-0.00602,0.560292
999,-0.00601,0.560292
1000,-0.006,0.561879
1001,-0.00599,0.563466
1002,-0.00598,0.561879
1003,-0.00597,0.561879
1004,-0.00596,0.561879
1005,-0.00595,0.561879
1006,-0.00594,0.561879
1007,-0.00593,0.561879
1008,-0.00592,0.560292
1009,-0.00591,0.560292
1010,-0.0059,0.560292
1011,-0.00589,0.561879
1012,-0.00588,0.561879
1013,-0.00587,0.561879
1014,-0.00586,0.561879
1015,-0.00585,0.560292
1016,-0.00584,0.560292
1017,-0.00583,0.560292
1018,-0.00582,0.560292
1019,-0.00581,0.560292
1020,-0.0058,0.560292
1021,-0.00579,0.561879
1022,-0.00578,0.561879
1023,-0.00577,0.561879
1024,-0.00576,0.560292
1025,-0.00575,0.560292
1026,-0.00574,0.560292
1027,-0.00573,0.560292
1028,-0.00572,0.560292
1029,-0.00571,0.560292
1030,-0.0057,0.560292
1031,-0.00569,0.560292
1032,-0.00568,0.561879
1033,-0.00567,0.560292
1034,-0.00566,0.560292
1035,-0.00565,0.560292
1036,-0.00564,0.560292
1037,-0.00563,0.560292
1038,-0.00562,0.560292
1039,-0.00561,0.560292
1040,-0.0056,0.558705
1041,-0.00559,0.560292
1042,-0.00558,0.560292
1043,-0.00557,0.560292
1044,-0.00556,0.560292
1045,-0.00555,0.560292
1046,-0.00554,0.560292
1047,-0.00553,0.560292
1048,-0.00552,0.558705
1049,-0.00551,0.558705
1050,-0.0055,0.558705
1051,-0.00549,0.560292
1052,-0.00548,0.560292
1053,-0.00547,0.560292
1054,-0.00546,0.560292
1055,-0.00545,0.560292
1056,-0.00544,0.560292
1057,-0.00543,0.558705
1058,-0.00542,0.558705
1059,-0.00541,0.558705
1060,-0.0054,0.558705
1061,-0.00539,0.558705
1062,-0.00538,0.560292
1063,-0.00537,0.560292
1064,-0.00536,0.560292
1065,-0.00535,0.560292
1066,-0.00534,0.560292
1067,-0.00533,0.560292
1068,-0.00532,0.560292
1069,-0.00531,0.558705
1070,-0.0053,0.558705
1071,-0.00529,0.558705
1072,-0.00528,0.560292
1073,-0.00527,0.560292
1074,-0.00526,0.560292
1075,-0.00525,0.560292
1076,-0.00524,0.560292
1077,-0.00523,0.560292
1078,-0.00522,0.560292
1079,-0.00521,0.558705
1080,-0.0052,0.558705
1081,-0.00519,0.560292
1082,-0.00518,0.560292
1083,-0.00517,0.560292
1084,-0.00516,0.560292
1085,-0.00515,0.560292
1086,-0.00514,0.560292
1087,-0.00513,0.560292
1088,-0.00512,0.560292
1089,-0.00511,0.560292
1090,-0.0051,0.560292
1091,-0.00509,0.560292
1092,-0.00508,0.560292
1093,-0.00507,0.560292
1094,-0.00506,0.560292
1095,-0.00505,0.560292
1096,-0.00504,0.560292
1097,-0.00503,0.560292
1098,-0.00502,0.560292
1099,-0.00501,0.558705
1100,-0.005,0.558705
1101,-0.00499,0.560292
1102,-0.00498,0.560292
1103,-0.00497,0.560292
1104,-0.00496,0.560292
1105,-0.00495,0.560292
1106,-0.00494,0.560292
1107,-0.00493,0.560292
1108,-0.00492,0.560292
1109,-0.00491,0.560292
1110,-0.0049,0.558705
1111,-0.00489,0.560292
1112,-0.00488,0.560292
1113,-0.00487,0.560292
1114,-0.00486,0.560292
1115,-0.00485,0.560292
1116,-0.00484,0.560292
1117,-0.00483,0.560292
1118,-0.00482,0.560292
1119,-0.00481,0.558705
1120,-0.0048,0.557118
1121,-0.00479,0.558705
1122,-0.00478,0.560292
1123,-0.00477,0.561879
1124,-0.00476,0.560292
1125,-0.00475,0.560292
1126,-0.00474,0.560292
1127,-0.00473,0.560292
1128,-0.00472,0.560292
1129,-0.00471,0.558705
1130,-0.0047,0.558705
1131,-0.00469,0.558705
1132,-0.00468,0.560292
1133,-0.00467,0.561879
1134,-0.00466,0.560292
1135,-0.00465,0.560292
1136,-0.00464,0.560292
1137,-0.00463,0.560292
1138,-0.00462,0.560292
1139,-0.00461,0.558705
1140,-0.0046,0.558705
1141,-0.00459,0.558705
1142,-0.00458,0.560292
1143,-0.00457,0.560292
1144,-0.00456,0.560292
1145,-0.00455,0.560292
1146,-0.00454,0.560292
1147,-0.00453,0.560292
1148,-0.00452,0.560292
1149,-0.00451,0.558705
1150,-0.0045,0.558705
1151,-0.00449,0.558705
1152,-0.00448,0.560292
1153,-0.00447,0.560292
1154,-0.00446,0.560292
1155,-0.00445,0.560292
1156,-0.00444,0.560292
1157,-0.00443,0.558705
1158,-0.00442,0.558705
1159,-0.00441,0.558705
1160,-0.0044,0.558705
1161,-0.00439,0.558705
1162,-0.00438,0.558705
1163,-0.00437,0.553944
1164,-0.00436,0.549182
1165,-0.00435,0.544421
1166,-0.00434,0.53966
1167,-0.00433,0.533312
1168,-0.00432,0.528551
1169,-0.00431,0.525377
1170,-0.0043,0.522203
1171,-0.00429,0.515854
1172,-0.00428,0.51268
1173,-0.00427,0.511093
1174,-0.00426,0.504745
1175,-0.00425,0.501571
1176,-0.00424,0.498397
1177,-0.00423,0.495223
1178,-0.00422,0.490462
1179,-0.00421,0.487288
1180,-0.0042,0.484113
1181,-0.00419,0.480939
1182,-0.00418,0.480939
1183,-0.00417,0.476178
1184,-0.00416,0.473004
1185,-0.00415,0.468243
1186,-0.00414,0.465069
1187,-0.00413,0.461895
1188,-0.00412,0.461895
1189,-0.00411,0.457134
1190,-0.0041,0.45396
1191,-0.00409,0.45396
1192,-0.00408,0.449198
1193,-0.00407,0.449198
1194,-0.00406,0.444437
1195,-0.00405,0.441263
1196,-0.00404,0.438089
1197,-0.00403,0.436502
1198,-0.00402,0.433328
1199,-0.00401,0.431741
1200,-0.004,0.428567
1201,-0.00399,0.428567
1202,-0.00398,0.425393
1203,-0.00397,0.420632
1204,-0.00396,0.419045
1205,-0.00395,0.417458
1206,-0.00394,0.417458
1207,-0.00393,0.414283
1208,-0.00392,0.411109
1209,-0.00391,0.409522
1210,-0.0039,0.407935
1211,-0.00389,0.406348
1212,-0.00388,0.404761
1213,-0.00387,0.403174
1214,-0.00386,0.401587
1215,-0.00385,0.396826
1216,-0.00384,0.396826
1217,-0.00383,0.395239
1218,-0.00382,0.393652
1219,-0.00381,0.392065
1220,-0.0038,0.390478
1221,-0.00379,0.388891
1222,-0.00378,0.387304
1223,-0.00377,0.385717
1224,-0.00376,0.38413
1225,-0.00375,0.382542
1226,-0.00374,0.380955
1227,-0.00373,0.379368
1228,-0.00372,0.377781
1229,-0.00371,0.374607
1230,-0.0037,0.374607
1231,-0.00369,0.371433
1232,-0.00368,0.369846
1233,-0.00367,0.369846
1234,-0.00366,0.369846
1235,-0.00365,0.366672
1236,-0.00364,0.366672
1237,-0.00363,0.365085
1238,-0.00362,0.363498
1239,-0.00361,0.363498
1240,-0.0036,0.363498
1241,-0.00359,0.360324
1242,-0.00358,0.360324
1243,-0.00357,0.358737
1244,-0.00356,0.358737
1245,-0.00355,0.35715
1246,-0.00354,0.35715
1247,-0.00353,0.35715
1248,-0.00352,0.353976
1249,-0.00351,0.355563
1250,-0.0035,0.350802
1251,-0.00349,0.350802
1252,-0.00348,0.350802
1253,-0.00347,0.347627
1254,-0.00346,0.349215
1255,-0.00345,0.34604
1256,-0.00344,0.34604
1257,-0.00343,0.344453
1258,-0.00342,0.344453
1259,-0.00341,0.342866
1260,-0.0034,0.342866
1261,-0.00339,0.341279
1262,-0.00338,0.341279
1263,-0.00337,0.339692
1264,-0.00336,0.339692
1265,-0.00335,0.338105
1266,-0.00334,0.339692
1267,-0.00333,0.336518
1268,-0.00332,0.336518
1269,-0.00331,0.336518
1270,-0.0033,0.334931
1271,-0.00329,0.336518
1272,-0.00328,0.333344
1273,-0.00327,0.333344
1274,-0.00326,0.333344
1275,-0.00325,0.331757
1276,-0.00324,0.331757
1277,-0.00323,0.331757
1278,-0.00322,0.33017
1279,-0.00321,0.33017
1280,-0.0032,0.331757
1281,-0.00319,0.325409
1282,-0.00318,0.33017
1283,-0.00317,0.326996
1284,-0.00316,0.326996
1285,-0.00315,0.326996
1286,-0.00314,0.325409
1287,-0.00313,0.325409
1288,-0.00312,0.325409
1289,-0.00311,0.323822
1290,-0.0031,0.323822
1291,-0.00309,0.323822
1292,-0.00308,0.322235
1293,-0.00307,0.322235
1294,-0.00306,0.322235
1295,-0.00305,0.320648
1296,-0.00304,0.320648
1297,-0.00303,0.322235
1298,-0.00302,0.319061
1299,-0.00301,0.319061
1300,-0.003,0.319061
1301,-0.00299,0.320648
1302,-0.00298,0.317474
1303,-0.00297,0.317474
1304,-0.00296,0.317474
1305,-0.00295,0.317474
1306,-0.00294,0.319061
1307,-0.00293,0.315887
1308,-0.00292,0.315887
1309,-0.00291,0.315887
1310,-0.0029,0.315887
1311,-0.00289,0.315887
1312,-0.00288,0.315887
1313,-0.00287,0.314299
1314,-0.00286,0.314299
1315,-0.00285,0.314299
1316,-0.00284,0.314299
1317,-0.00283,0.314299
1318,-0.00282,0.312712
1319,-0.00281,0.312712
1320,-0.0028,0.312712
1321,-0.00279,0.312712
1322,-0.00278,0.314299
1323,-0.00277,0.311125
1324,-0.00276,0.311125
1325,-0.00275,0.311125
1326,-0.00274,0.311125
1327,-0.00273,0.311125
1328,-0.00272,0.311125
1329,-0.00271,0.311125
1330,-0.0027,0.309538
1331,-0.00269,0.309538
1332,-0.00268,0.309538
1333,-0.00267,0.309538
1334,-0.00266,0.309538
1335,-0.00265,0.309538
1336,-0.00264,0.307951
1337,-0.00263,0.307951
1338,-0.00262,0.307951
1339,-0.00261,0.307951
1340,-0.0026,0.307951
1341,-0.00259,0.307951
1342,-0.00258,0.307951
1343,-0.00257,0.307951
1344,-0.00256,0.307951
1345,-0.00255,0.306364
1346,-0.00254,0.306364
1347,-0.00253,0.306364
1348,-0.00252,0.306364
1349,-0.00251,0.306364
1350,-0.0025,0.306364
1351,-0.00249,0.306364
1352,-0.00248,0.306364
1353,-0.00247,0.306364
1354,-0.00246,0.307951
1355,-0.00245,0.30319
1356,-0.00244,0.30319
1357,-0.00243,0.30319
1358,-0.00242,0.30319
1359,-0.00241,0.30319
1360,-0.0024,0.30319
1361,-0.00239,0.30319
1362,-0.00238,0.30319
1363,-0.00237,0.30319
1364,-0.00236,0.30319
1365,-0.00235,0.30319
1366,-0.00234,0.306364
1367,-0.00233,0.301603
1368,-0.00232,0.301603
1369,-0.00231,0.301603
1370,-0.0023,0.301603
1371,-0.00229,0.301603
1372,-0.00228,0.301603
1373,-0.00227,0.301603
1374,-0.00226,0.301603
1375,-0.00225,0.301603
1376,-0.00224,0.301603
1377,-0.00223,0.301603
1378,-0.00222,0.30319
1379,-0.00221,0.298429
1380,-0.0022,0.301603
1381,-0.00219,0.300016
1382,-0.00218,0.30319
1383,-0.00217,0.301603
1384,-0.00216,0.301603
1385,-0.00215,0.30319
1386,-0.00214,0.300016
1387,-0.00213,0.300016
1388,-0.00212,0.300016
1389,-0.00211,0.300016
1390,-0.0021,0.300016
1391,-0.00209,0.300016
1392,-0.00208,0.300016
1393,-0.00207,0.300016
1394,-0.00206,0.300016
1395,-0.00205,0.300016
1396,-0.00204,0.300016
1397,-0.00203,0.300016
1398,-0.00202,0.300016
1399,-0.00201,0.300016
1400,-0.002,0.300016
1401,-0.00199,0.300016
1402,-0.00198,0.300016
1403,-0.00197,0.300016
1404,-0.00196,0.298429
1405,-0.00195,0.298429
1406,-0.00194,0.298429
1407,-0.00193,0.300016
1408,-0.00192,0.298429
1409,-0.00191,0.298429
1410,-0.0019,0.298429
1411,-0.00189,0.298429
1412,-0.00188,0.298429
1413,-0.00187,0.298429
1414,-0.00186,0.298429
1415,-0.00185,0.298429
1416,-0.00184,0.298429
1417,-0.00183,0.298429
1418,-0.00182,0.298429
1419,-0.00181,0.298429
1420,-0.0018,0.298429
1421,-0.00179,0.298429
1422,-0.00178,0.298429
1423,-0.00177,0.298429
1424,-0.00176,0.298429
1425,-0.00175,0.298429
1426,-0.00174,0.298429
1427,-0.00173,0.298429
1428,-0.00172,0.298429
1429,-0.00171,0.300016
1430,-0.0017,0.296842
1431,-0.00169,0.296842
1432,-0.00168,0.298429
1433,-0.00167,0.298429
1434,-0.00166,0.300016
1435,-0.00165,0.296842
1436,-0.00164,0.296842
1437,-0.00163,0.296842
1438,-0.00162,0.296842
1439,-0.00161,0.296842
1440,-0.0016,0.296842
1441,-0.00159,0.296842
1442,-0.00158,0.296842
1443,-0.00157,0.296842
1444,-0.00156,0.296842
1445,-0.00155,0.296842
1446,-0.00154,0.296842
1447,-0.00153,0.296842
1448,-0.00152,0.296842
1449,-0.00151,0.296842
1450,-0.0015,0.296842
1451,-0.00149,0.296842
1452,-0.00148,0.296842
1453,-0.00147,0.296842
1454,-0.00146,0.296842
1455,-0.00145,0.296842
1456,-0.00144,0.296842
1457,-0.00143,0.296842
1458,-0.00142,0.296842
1459,-0.00141,0.296842
1460,-0.0014,0.296842
1461,-0.00139,0.296842
1462,-0.00138,0.296842
1463,-0.00137,0.296842
1464,-0.00136,0.296842
1465,-0.00135,0.296842
1466,-0.00134,0.296842
1467,-0.00133,0.296842
1468,-0.00132,0.296842
1469,-0.00131,0.296842
1470,-0.0013,0.296842
1471,-0.00129,0.296842
1472,-0.00128,0.298429
1473,-0.00127,0.293668
1474,-0.00126,0.298429
1475,-0.00125,0.296842
1476,-0.00124,0.296842
1477,-0.00123,0.296842
1478,-0.00122,0.296842
1479,-0.00121,0.296842
1480,-0.0012,0.296842
1481,-0.00119,0.296842
1482,-0.00118,0.296842
1483,-0.00117,0.296842
1484,-0.00116,0.296842
1485,-0.00115,0.296842
1486,-0.00114,0.296842
1487,-0.00113,0.296842
1488,-0.00112,0.296842
1489,-0.00111,0.296842
1490,-0.0011,0.296842
1491,-0.00109,0.296842
1492,-0.00108,0.296842
1493,-0.00107,0.296842
1494,-0.00106,0.296842
1495,-0.00105,0.298429
1496,-0.00104,0.295255
1497,-0.00103,0.296842
1498,-0.00102,0.296842
1499,-0.00101,0.296842
1500,-0.001,0.296842
1501,-0.00099,0.296842
1502,-0.00098,0.296842
1503,-0.00097,0.296842
1504,-0.00096,0.296842
1505,-0.00095,0.296842
1506,-0.00094,0.296842
1507,-0.00093,0.296842
1508,-0.00092,0.296842
1509,-0.00091,0.296842
1510,-0.0009,0.296842
1511,-0.00089,0.295255
1512,-0.00088,0.295255
1513,-0.00087,0.296842
1514,-0.00086,0.295255
1515,-0.00085,0.295255
1516,-0.00084,0.295255
1517,-0.00083,0.295255
1518,-0.00082,0.295255
1519,-0.00081,0.295255
1520,-0.0008,0.295255
1521,-0.00079,0.295255
1522,-0.00078,0.295255
1523,-0.00077,0.295255
1524,-0.00076,0.295255
1525,-0.00075,0.295255
1526,-0.00074,0.295255
1527,-0.00073,0.295255
1528,-0.00072,0.295255
1529,-0.00071,0.295255
1530,-0.0007,0.295255
1531,-0.00069,0.295255
1532,-0.00068,0.295255
1533,-0.00067,0.295255
1534,-0.00066,0.295255
1535,-0.00065,0.295255
1536,-0.00064,0.295255
1537,-0.00063,0.295255
1538,-0.00062,0.295255
1539,-0.00061,0.295255
1540,-0.0006,0.295255
1541,-0.00059,0.295255
1542,-0.00058,0.295255
1543,-0.00057,0.295255
1544,-0.00056,0.295255
1545,-0.00055,0.295255
1546,-0.00054,0.295255
1547,-0.00053,0.295255
1548,-0.00052,0.295255
1549,-0.00051,0.295255
1550,-0.0005,0.295255
1551,-0.00049,0.295255
1552,-0.00048,0.295255
1553,-0.00047,0.295255
1554,-0.00046,0.295255
1555,-0.00045,0.295255
1556,-0.00044,0.295255
1557,-0.00043,0.295255
1558,-0.00042,0.295255
1559,-0.00041,0.295255
1560,-0.0004,0.295255
1561,-0.00039,0.295255
1562,-0.00038,0.295255
1563,-0.00037,0.295255
1564,-0.00036,0.295255
1565,-0.00035,0.295255
1566,-0.00034,0.295255
1567,-0.00033,0.295255
1568,-0.00032,0.295255
1569,-0.00031,0.295255
1570,-0.0003,0.295255
1571,-0.00029,0.295255
1572,-0.00028,0.295255
1573,-0.00027,0.295255
1574,-0.00026,0.295255
1575,-0.00025,0.295255
1576,-0.00024,0.295255
1577,-0.00023,0.295255
1578,-0.00022,0.295255
1579,-0.00021,0.295255
1580,-0.0002,0.295255
1581,-0.00019,0.295255
1582,-0.00018,0.295255
1583,-0.00017,0.295255
1584,-0.00016,0.295255
1585,-0.00015,0.295255
1586,-0.00014,0.295255
1587,-0.00013,0.295255
1588,-0.00012,0.295255
1589,-0.00011,0.295255
1590,-0.0001,0.295255
1591,-9e-05,0.295255
1592,-8e-05,0.295255
1593,-7e-05,0.295255
1594,-6e-05,0.295255
1595,-5e-05,0.295255
1596,-4e-05,0.295255
1597,-3e-05,0.295255
1598,-2e-05,0.295255
1599,-1e-05,0.295255
1600,0,0.295255
1601,1e-05,0.295255
1602,2e-05,0.295255
1603,3e-05,0.295255
1604,4e-05,0.295255
1605,5e-05,0.295255
1606,6e-05,0.295255
1607,7e-05,0.295255
1608,8e-05,0.295255
1609,9e-05,0.295255
1610,0.0001,0.295255
1611,0.00011,0.295255
1612,0.00012,0.295255
1613,0.00013,0.295255
1614,0.00014,0.295255
1615,0.00015,0.295255
1616,0.00016,0.295255
1617,0.00017,0.295255
1618,0.00018,0.295255
1619,0.00019,0.295255
1620,0.0002,0.295255
1621,0.00021,0.295255
1622,0.00022,0.295255
1623,0.00023,0.295255
1624,0.00024,0.295255
1625,0.00025,0.295255
1626,0.00026,0.295255
1627,0.00027,0.295255
1628,0.00028,0.295255
1629,0.00029,0.295255
1630,0.0003,0.295255
1631,0.00031,0.295255
1632,0.00032,0.295255
1633,0.00033,0.295255
1634,0.00034,0.295255
1635,0.00035,0.295255
1636,0.00036,0.295255
1637,0.00037,0.295255
1638,0.00038,0.295255
1639,0.00039,0.295255
1640,0.0004,0.295255
1641,0.00041,0.295255
1642,0.00042,0.295255
1643,0.00043,0.295255
1644,0.00044,0.295255
1645,0.00045,0.295255
1646,0.00046,0.295255
1647,0.00047,0.295255
1648,0.00048,0.295255
1649,0.00049,0.295255
1650,0.0005,0.295255
1651,0.00051,0.295255
1652,0.00052,0.295255
1653,0.00053,0.295255
1654,0.00054,0.295255
1655,0.00055,0.295255
1656,0.00056,0.295255
1657,0.00057,0.295255
1658,0.00058,0.295255
1659,0.00059,0.295255
1660,0.0006,0.295255
1661,0.00061,0.296842
1662,0.00062,0.292081
1663,0.00063,0.295255
1664,0.00064,0.295255
1665,0.00065,0.293668
1666,0.00066,0.296842
1667,0.00067,0.292081
1668,0.00068,0.295255
1669,0.00069,0.293668
1670,0.0007,0.296842
1671,0.00071,0.295255
1672,0.00072,0.295255
1673,0.00073,0.295255
1674,0.00074,0.295255
1675,0.00075,0.295255
1676,0.00076,0.295255
1677,0.00077,0.295255
1678,0.00078,0.293668
1679,0.00079,0.296842
1680,0.0008,0.295255
1681,0.00081,0.293668
1682,0.00082,0.296842
1683,0.00083,0.295255
1684,0.00084,0.295255
1685,0.00085,0.295255
1686,0.00086,0.295255
1687,0.00087,0.295255
1688,0.00088,0.295255
1689,0.00089,0.295255
1690,0.0009,0.295255
1691,0.00091,0.295255
1692,0.00092,0.295255
1693,0.00093,0.295255
1694,0.00094,0.295255
1695,0.00095,0.295255
1696,0.00096,0.295255
1697,0.00097,0.295255
1698,0.00098,0.295255
1699,0.00099,0.295255
1700,0.001,0.295255
1701,0.00101,0.295255
1702,0.00102,0.295255
1703,0.00103,0.295255
1704,0.00104,0.295255
1705,0.00105,0.295255
1706,0.00106,0.295255
1707,0.00107,0.295255
1708,0.00108,0.295255
1709,0.00109,0.295255
1710,0.0011,0.295255
1711,0.00111,0.295255
1712,0.00112,0.295255
1713,0.00113,0.295255
1714,0.00114,0.295255
1715,0.00115,0.295255
1716,0.00116,0.295255
1717,0.00117,0.295255
1718,0.00118,0.295255
1719,0.00119,0.295255
1720,0.0012,0.295255
1721,0.00121,0.295255
1722,0.00122,0.295255
1723,0.00123,0.295255
1724,0.00124,0.295255
1725,0.00125,0.295255
1726,0.00126,0.295255
1727,0.00127,0.295255
1728,0.00128,0.295255
1729,0.00129,0.295255
1730,0.0013,0.295255
1731,0.00131,0.295255
1732,0.00132,0.296842
1733,0.00133,0.292081
1734,0.00134,0.295255
1735,0.00135,0.293668
1736,0.00136,0.296842
1737,0.00137,0.295255
1738,0.00138,0.295255
1739,0.00139,0.295255
1740,0.0014,0.295255
1741,0.00141,0.295255
1742,0.00142,0.293668
1743,0.00143,0.296842
1744,0.00144,0.295255
1745,0.00145,0.295255
1746,0.00146,0.295255
1747,0.00147,0.295255
1748,0.00148,0.295255
1749,0.00149,0.293668
1750,0.0015,0.293668
1751,0.00151,0.293668
1752,0.00152,0.293668
1753,0.00153,0.293668
1754,0.00154,0.293668
1755,0.00155,0.293668
1756,0.00156,0.293668
1757,0.00157,0.293668
1758,0.00158,0.293668
1759,0.00159,0.293668
1760,0.0016,0.295255
1761,0.00161,0.293668
1762,0.00162,0.293668
1763,0.00163,0.296842
1764,0.00164,0.295255
1765,0.00165,0.295255
1766,0.00166,0.293668
1767,0.00167,0.293668
1768,0.00168,0.293668
1769,0.00169,0.293668
1770,0.0017,0.293668
1771,0.00171,0.293668
1772,0.00172,0.293668
1773,0.00173,0.293668
1774,0.00174,0.293668
1775,0.00175,0.293668
1776,0.00176,0.293668
1777,0.00177,0.293668
1778,0.00178,0.293668
1779,0.00179,0.293668
1780,0.0018,0.293668
1781,0.00181,0.293668
1782,0.00182,0.296842
1783,0.00183,0.295255
1784,0.00184,0.295255
1785,0.00185,0.295255
1786,0.00186,0.295255
1787,0.00187,0.295255
1788,0.00188,0.295255
1789,0.00189,0.295255
1790,0.0019,0.295255
1791,0.00191,0.295255
1792,0.00192,0.295255
1793,0.00193,0.295255
1794,0.00194,0.295255
1795,0.00195,0.295255
1796,0.00196,0.295255
1797,0.00197,0.295255
1798,0.00198,0.295255
1799,0.00199,0.295255
1800,0.002,0.295255
1801,0.00201,0.295255
1802,0.00202,0.295255
1803,0.00203,0.295255
1804,0.00204,0.295255
1805,0.00205,0.295255
1806,0.00206,0.295255
1807,0.00207,0.295255
1808,0.00208,0.295255
1809,0.00209,0.295255
1810,0.0021,0.295255
1811,0.00211,0.295255
1812,0.00212,0.295255
1813,0.00213,0.293668
1814,0.00214,0.293668
1815,0.00215,0.296842
1816,0.00216,0.295255
1817,0.00217,0.295255
1818,0.00218,0.295255
1819,0.00219,0.295255
1820,0.0022,0.295255
1821,0.00221,0.295255
1822,0.00222,0.295255
1823,0.00223,0.293668
1824,0.00224,0.295255
1825,0.00225,0.293668
1826,0.00226,0.295255
1827,0.00227,0.295255
1828,0.00228,0.295255
1829,0.00229,0.295255
1830,0.0023,0.295255
1831,0.00231,0.295255
1832,0.00232,0.293668
1833,0.00233,0.296842
1834,0.00234,0.295255
1835,0.00235,0.296842
1836,0.00236,0.293668
1837,0.00237,0.293668
1838,0.00238,0.293668
1839,0.00239,0.293668
1840,0.0024,0.293668
1841,0.00241,0.293668
1842,0.00242,0.295255
1843,0.00243,0.295255
1844,0.00244,0.293668
1845,0.00245,0.293668
1846,0.00246,0.293668
1847,0.00247,0.293668
1848,0.00248,0.293668
1849,0.00249,0.293668
1850,0.0025,0.293668
1851,0.00251,0.293668
1852,0.00252,0.293668
1853,0.00253,0.293668
1854,0.00254,0.293668
1855,0.00255,0.293668
1856,0.00256,0.293668
1857,0.00257,0.293668
1858,0.00258,0.293668
1859,0.00259,0.293668
1860,0.0026,0.293668
1861,0.00261,0.293668
1862,0.00262,0.293668
1863,0.00263,0.293668
1864,0.00264,0.293668
1865,0.00265,0.293668
1866,0.00266,0.293668
1867,0.00267,0.293668
1868,0.00268,0.293668
1869,0.00269,0.293668
1870,0.0027,0.293668
1871,0.00271,0.293668
1872,0.00272,0.293668
1873,0.00273,0.293668
1874,0.00274,0.293668
1875,0.00275,0.293668
1876,0.00276,0.293668
1877,0.00277,0.293668
1878,0.00278,0.293668
1879,0.00279,0.293668
1880,0.0028,0.293668
1881,0.00281,0.296842
1882,0.00282,0.295255
1883,0.00283,0.295255
1884,0.00284,0.295255
1885,0.00285,0.295255
1886,0.00286,0.295255
1887,0.00287,0.295255
1888,0.00288,0.295255
1889,0.00289,0.295255
1890,0.0029,0.295255
1891,0.00291,0.295255
1892,0.00292,0.295255
1893,0.00293,0.295255
1894,0.00294,0.295255
1895,0.00295,0.295255
1896,0.00296,0.295255
1897,0.00297,0.295255
1898,0.00298,0.295255
1899,0.00299,0.295255
1900,0.003,0.295255
1901,0.00301,0.295255
1902,0.00302,0.295255
1903,0.00303,0.295255
1904,0.00304,0.295255
1905,0.00305,0.295255
1906,0.00306,0.295255
1907,0.00307,0.295255
1908,0.00308,0.295255
1909,0.00309,0.295255
1910,0.0031,0.295255
1911,0.00311,0.295255
1912,0.00312,0.295255
1913,0.00313,0.295255
1914,0.00314,0.295255
1915,0.00315,0.295255
1916,0.00316,0.295255
1917,0.00317,0.295255
1918,0.00318,0.293668
1919,0.00319,0.293668
1920,0.0032,0.295255
1921,0.00321,0.293668
1922,0.00322,0.293668
1923,0.00323,0.293668
1924,0.00324,0.293668
1925,0.00325,0.293668
1926,0.00326,0.293668
1927,0.00327,0.293668
1928,0.00328,0.293668
1929,0.00329,0.293668
1930,0.0033,0.293668
1931,0.00331,0.293668
1932,0.00332,0.293668
1933,0.00333,0.293668
1934,0.00334,0.293668
1935,0.00335,0.293668
1936,0.00336,0.293668
1937,0.00337,0.293668
1938,0.00338,0.293668
1939,0.00339,0.293668
1940,0.0034,0.293668
1941,0.00341,0.293668
1942,0.00342,0.293668
1943,0.00343,0.293668
1944,0.00344,0.293668
1945,0.00345,0.293668
1946,0.00346,0.293668
1947,0.00347,0.293668
1948,0.00348,0.293668
1949,0.00349,0.293668
1950,0.0035,0.293668
1951,0.00351,0.293668
1952,0.00352,0.293668
1953,0.00353,0.293668
1954,0.00354,0.293668
1955,0.00355,0.293668
1956,0.00356,0.293668
1957,0.00357,0.293668
1958,0.00358,0.293668
1959,0.00359,0.293668
1960,0.0036,0.293668
1961,0.00361,0.293668
1962,0.00362,0.293668
1963,0.00363,0.293668
1964,0.00364,0.293668
1965,0.00365,0.293668
1966,0.00366,0.293668
1967,0.00367,0.293668
1968,0.00368,0.293668
1969,0.00369,0.293668
1970,0.0037,0.293668
1971,0.00371,0.293668
1972,0.00372,0.293668
1973,0.00373,0.293668
1974,0.00374,0.293668
1975,0.00375,0.293668
1976,0.00376,0.293668
1977,0.00377,0.293668
1978,0.00378,0.293668
1979,0.00379,0.293668
1980,0.0038,0.293668
1981,0.00381,0.293668
1982,0.00382,0.295255
1983,0.00383,0.295255
1984,0.00384,0.295255
1985,0.00385,0.295255
1986,0.00386,0.296842
1987,0.00387,0.293668
1988,0.00388,0.295255
1989,0.00389,0.295255
1990,0.0039,0.295255
1991,0.00391,0.293668
1992,0.00392,0.296842
1993,0.00393,0.292081
1994,0.00394,0.295255
1995,0.00395,0.293668
1996,0.00396,0.293668
1997,0.00397,0.293668
1998,0.00398,0.293668
1999,0.00399,0.293668
2000,0.004,0.293668
2001,0.00401,0.293668
2002,0.00402,0.293668
2003,0.00403,0.293668
2004,0.00404,0.293668
2005,0.00405,0.293668
2006,0.00406,0.293668
2007,0.00407,0.295255
2008,0.00408,0.293668
2009,0.00409,0.293668
2010,0.0041,0.293668
2011,0.00411,0.293668
2012,0.00412,0.293668
2013,0.00413,0.293668
2014,0.00414,0.293668
2015,0.00415,0.293668
2016,0.00416,0.293668
2017,0.00417,0.293668
2018,0.00418,0.293668
2019,0.00419,0.293668
2020,0.0042,0.293668
2021,0.00421,0.293668
2022,0.00422,0.293668
2023,0.00423,0.293668
2024,0.00424,0.293668
2025,0.00425,0.293668
2026,0.00426,0.293668
2027,0.00427,0.293668
2028,0.00428,0.293668
2029,0.00429,0.293668
2030,0.0043,0.293668
2031,0.00431,0.293668
2032,0.00432,0.293668
2033,0.00433,0.293668
2034,0.00434,0.293668
2035,0.00435,0.293668
2036,0.00436,0.293668
2037,0.00437,0.293668
2038,0.00438,0.293668
2039,0.00439,0.293668
2040,0.0044,0.293668
2041,0.00441,0.293668
2042,0.00442,0.293668
2043,0.00443,0.293668
2044,0.00444,0.293668
2045,0.00445,0.293668
2046,0.00446,0.293668
2047,0.00447,0.293668
2048,0.00448,0.293668
2049,0.00449,0.293668
2050,0.0045,0.293668
2051,0.00451,0.293668
2052,0.00452,0.293668
2053,0.00453,0.293668
2054,0.00454,0.293668
2055,0.00455,0.293668
2056,0.00456,0.293668
2057,0.00457,0.293668
2058,0.00458,0.293668
2059,0.00459,0.293668
2060,0.0046,0.293668
2061,0.00461,0.293668
2062,0.00462,0.293668
2063,0.00463,0.293668
2064,0.00464,0.293668
2065,0.00465,0.293668
2066,0.00466,0.293668
2067,0.00467,0.293668
2068,0.00468,0.293668
2069,0.00469,0.293668
2070,0.0047,0.293668
2071,0.00471,0.293668
2072,0.00472,0.293668
2073,0.00473,0.293668
2074,0.00474,0.293668
2075,0.00475,0.293668
2076,0.00476,0.293668
2077,0.00477,0.293668
2078,0.00478,0.293668
2079,0.00479,0.293668
2080,0.0048,0.293668
2081,0.00481,0.293668
2082,0.00482,0.295255
2083,0.00483,0.295255
2084,0.00484,0.295255
2085,0.00485,0.295255
2086,0.00486,0.295255
2087,0.00487,0.295255
2088,0.00488,0.296842
2089,0.00489,0.293668
2090,0.0049,0.293668
2091,0.00491,0.293668
2092,0.00492,0.293668
2093,0.00493,0.293668
2094,0.00494,0.293668
2095,0.00495,0.293668
2096,0.00496,0.293668
2097,0.00497,0.293668
2098,0.00498,0.293668
2099,0.00499,0.293668
2100,0.005,0.293668
2101,0.00501,0.293668
2102,0.00502,0.293668
2103,0.00503,0.293668
2104,0.00504,0.293668
2105,0.00505,0.293668
2106,0.00506,0.293668
2107,0.00507,0.293668
2108,0.00508,0.293668
2109,0.00509,0.293668
2110,0.0051,0.293668
2111,0.00511,0.293668
2112,0.00512,0.293668
2113,0.00513,0.293668
2114,0.00514,0.293668
2115,0.00515,0.293668
2116,0.00516,0.293668
2117,0.00517,0.293668
2118,0.00518,0.293668
2119,0.00519,0.293668
2120,0.0052,0.293668
2121,0.00521,0.293668
2122,0.00522,0.293668
2123,0.00523,0.293668
2124,0.00524,0.293668
2125,0.00525,0.293668
2126,0.00526,0.293668
2127,0.00527,0.293668
2128,0.00528,0.293668
2129,0.00529,0.293668
2130,0.0053,0.293668
2131,0.00531,0.293668
2132,0.00532,0.293668
2133,0.00533,0.293668
2134,0.00534,0.293668
2135,0.00535,0.293668
2136,0.00536,0.293668
2137,0.00537,0.293668
2138,0.00538,0.293668
2139,0.00539,0.293668
2140,0.0054,0.293668
2141,0.00541,0.293668
2142,0.00542,0.293668
2143,0.00543,0.293668
2144,0.00544,0.293668
2145,0.00545,0.293668
2146,0.00546,0.293668
2147,0.00547,0.293668
2148,0.00548,0.293668
2149,0.00549,0.293668
2150,0.0055,0.293668
2151,0.00551,0.293668
2152,0.00552,0.293668
2153,0.00553,0.293668
2154,0.00554,0.293668
2155,0.00555,0.293668
2156,0.00556,0.293668
2157,0.00557,0.293668
2158,0.00558,0.293668
2159,0.00559,0.293668
2160,0.0056,0.293668
2161,0.00561,0.293668
2162,0.00562,0.293668
2163,0.00563,0.293668
2164,0.00564,0.293668
2165,0.00565,0.293668
2166,0.00566,0.293668
2167,0.00567,0.293668
2168,0.00568,0.293668
2169,0.00569,0.293668
2170,0.0057,0.293668
2171,0.00571,0.293668
2172,0.00572,0.293668
2173,0.00573,0.293668
2174,0.00574,0.293668
2175,0.00575,0.293668
2176,0.00576,0.293668
2177,0.00577,0.293668
2178,0.00578,0.293668
2179,0.00579,0.293668
2180,0.0058,0.293668
2181,0.00581,0.293668
2182,0.00582,0.295255
2183,0.00583,0.296842
2184,0.00584,0.293668
2185,0.00585,0.295255
2186,0.00586,0.295255
2187,0.00587,0.296842
2188,0.00588,0.293668
2189,0.00589,0.295255
2190,0.0059,0.295255
2191,0.00591,0.296842
2192,0.00592,0.293668
2193,0.00593,0.293668
2194,0.00594,0.293668
2195,0.00595,0.293668
2196,0.00596,0.293668
2197,0.00597,0.293668
2198,0.00598,0.293668
2199,0.00599,0.293668
2200,0.006,0.293668
2201,0.00601,0.293668
2202,0.00602,0.293668
2203,0.00603,0.293668
2204,0.00604,0.293668
2205,0.00605,0.293668
2206,0.00606,0.293668
2207,0.00607,0.293668
2208,0.00608,0.293668
2209,0.00609,0.293668
2210,0.0061,0.293668
2211,0.00611,0.293668
2212,0.00612,0.293668
2213,0.00613,0.293668
2214,0.00614,0.293668
2215,0.00615,0.293668
2216,0.00616,0.293668
2217,0.00617,0.293668
2218,0.00618,0.293668
2219,0.00619,0.293668
2220,0.0062,0.293668
2221,0.00621,0.293668
2222,0.00622,0.293668
2223,0.00623,0.293668
2224,0.00624,0.293668
2225,0.00625,0.293668
2226,0.00626,0.293668
2227,0.00627,0.293668
2228,0.00628,0.293668
2229,0.00629,0.293668
2230,0.0063,0.293668
2231,0.00631,0.293668
2232,0.00632,0.293668
2233,0.00633,0.293668
2234,0.00634,0.293668
2235,0.00635,0.293668
2236,0.00636,0.293668
2237,0.00637,0.293668
2238,0.00638,0.293668
2239,0.00639,0.293668
2240,0.0064,0.293668
2241,0.00641,0.293668
2242,0.00642,0.293668
2243,0.00643,0.293668
2244,0.00644,0.293668
2245,0.00645,0.293668
2246,0.00646,0.293668
2247,0.00647,0.293668
2248,0.00648,0.293668
2249,0.00649,0.293668
2250,0.0065,0.293668
2251,0.00651,0.293668
2252,0.00652,0.293668
2253,0.00653,0.293668
2254,0.00654,0.293668
2255,0.00655,0.293668
2256,0.00656,0.293668
2257,0.00657,0.293668
2258,0.00658,0.293668
2259,0.00659,0.293668
2260,0.0066,0.293668
2261,0.00661,0.293668
2262,0.00662,0.293668
2263,0.00663,0.293668
2264,0.00664,0.293668
2265,0.00665,0.293668
2266,0.00666,0.293668
2267,0.00667,0.293668
2268,0.00668,0.293668
2269,0.00669,0.293668
2270,0.0067,0.293668
2271,0.00671,0.293668
2272,0.00672,0.293668
2273,0.00673,0.293668
2274,0.00674,0.293668
2275,0.00675,0.293668
2276,0.00676,0.293668
2277,0.00677,0.293668
2278,0.00678,0.293668
2279,0.00679,0.293668
2280,0.0068,0.293668
2281,0.00681,0.293668
2282,0.00682,0.293668
2283,0.00683,0.293668
2284,0.00684,0.293668
2285,0.00685,0.293668
2286,0.00686,0.293668
2287,0.00687,0.293668
2288,0.00688,0.293668
2289,0.00689,0.293668
2290,0.0069,0.293668
2291,0.00691,0.293668
2292,0.00692,0.293668
2293,0.00693,0.293668
2294,0.00694,0.293668
2295,0.00695,0.293668
2296,0.00696,0.293668
2297,0.00697,0.293668
2298,0.00698,0.293668
2299,0.00699,0.293668
2300,0.007,0.293668
2301,0.00701,0.293668
2302,0.00702,0.293668
2303,0.00703,0.293668
2304,0.00704,0.293668
2305,0.00705,0.293668
2306,0.00706,0.293668
2307,0.00707,0.293668
2308,0.00708,0.293668
2309,0.00709,0.293668
2310,0.0071,0.293668
2311,0.00711,0.293668
2312,0.00712,0.293668
2313,0.00713,0.293668
2314,0.00714,0.293668
2315,0.00715,0.293668
2316,0.00716,0.293668
2317,0.00717,0.293668
2318,0.00718,0.293668
2319,0.00719,0.293668
2320,0.0072,0.293668
2321,0.00721,0.293668
2322,0.00722,0.293668
2323,0.00723,0.293668
2324,0.00724,0.293668
2325,0.00725,0.293668
2326,0.00726,0.293668
2327,0.00727,0.293668
2328,0.00728,0.293668
2329,0.00729,0.293668
2330,0.0073,0.293668
2331,0.00731,0.293668
2332,0.00732,0.293668
2333,0.00733,0.293668
2334,0.00734,0.293668
2335,0.00735,0.293668
2336,0.00736,0.293668
2337,0.00737,0.293668
2338,0.00738,0.293668
2339,0.00739,0.293668
2340,0.0074,0.293668
2341,0.00741,0.293668
2342,0.00742,0.293668
2343,0.00743,0.293668
2344,0.00744,0.293668
2345,0.00745,0.293668
2346,0.00746,0.293668
2347,0.00747,0.293668
2348,0.00748,0.293668
2349,0.00749,0.293668
2350,0.0075,0.293668
2351,0.00751,0.293668
2352,0.00752,0.293668
2353,0.00753,0.293668
2354,0.00754,0.293668
2355,0.00755,0.293668
2356,0.00756,0.293668
2357,0.00757,0.293668
2358,0.00758,0.293668
2359,0.00759,0.293668
2360,0.0076,0.293668
2361,0.00761,0.293668
2362,0.00762,0.293668
2363,0.00763,0.293668
2364,0.00764,0.293668
2365,0.00765,0.293668
2366,0.00766,0.293668
2367,0.00767,0.293668
2368,0.00768,0.293668
2369,0.00769,0.293668
2370,0.0077,0.293668
2371,0.00771,0.293668
2372,0.00772,0.293668
2373,0.00773,0.293668
2374,0.00774,0.293668
2375,0.00775,0.293668
2376,0.00776,0.293668
2377,0.00777,0.293668
2378,0.00778,0.293668
2379,0.00779,0.293668
2380,0.0078,0.293668
2381,0.00781,0.293668
2382,0.00782,0.293668
2383,0.00783,0.293668
2384,0.00784,0.293668
2385,0.00785,0.293668
2386,0.00786,0.293668
2387,0.00787,0.293668
2388,0.00788,0.293668
2389,0.00789,0.293668
2390,0.0079,0.293668
2391,0.00791,0.293668
2392,0.00792,0.293668
2393,0.00793,0.293668
2394,0.00794,0.293668
2395,0.00795,0.293668
2396,0.00796,0.293668
2397,0.00797,0.293668
2398,0.00798,0.293668
2399,0.00799,0.293668
2400,0.008,0.293668
2401,0.00801,0.293668
2402,0.00802,0.293668
2403,0.00803,0.293668
2404,0.00804,0.293668
2405,0.00805,0.293668
2406,0.00806,0.293668
2407,0.00807,0.293668
2408,0.00808,0.293668
2409,0.00809,0.293668
2410,0.0081,0.293668
2411,0.00811,0.293668
2412,0.00812,0.293668
2413,0.00813,0.293668
2414,0.00814,0.293668
2415,0.00815,0.293668
2416,0.00816,0.293668
2417,0.00817,0.293668
2418,0.00818,0.293668
2419,0.00819,0.293668
2420,0.0082,0.293668
2421,0.00821,0.293668
2422,0.00822,0.293668
2423,0.00823,0.293668
2424,0.00824,0.293668
2425,0.00825,0.293668
2426,0.00826,0.293668
2427,0.00827,0.293668
2428,0.00828,0.293668
2429,0.00829,0.293668
2430,0.0083,0.293668
2431,0.00831,0.293668
2432,0.00832,0.293668
2433,0.00833,0.293668
2434,0.00834,0.293668
2435,0.00835,0.293668
2436,0.00836,0.293668
2437,0.00837,0.293668
2438,0.00838,0.293668
2439,0.00839,0.293668
2440,0.0084,0.293668
2441,0.00841,0.293668
2442,0.00842,0.293668
2443,0.00843,0.293668
2444,0.00844,0.293668
2445,0.00845,0.293668
2446,0.00846,0.293668
2447,0.00847,0.293668
2448,0.00848,0.293668
2449,0.00849,0.293668
2450,0.0085,0.293668
2451,0.00851,0.293668
2452,0.00852,0.293668
2453,0.00853,0.293668
2454,0.00854,0.293668
2455,0.00855,0.293668
2456,0.00856,0.293668
2457,0.00857,0.293668
2458,0.00858,0.293668
2459,0.00859,0.293668
2460,0.0086,0.293668
2461,0.00861,0.293668
2462,0.00862,0.293668
2463,0.00863,0.293668
2464,0.00864,0.293668
2465,0.00865,0.293668
2466,0.00866,0.293668
2467,0.00867,0.293668
2468,0.00868,0.293668
2469,0.00869,0.293668
2470,0.0087,0.293668
2471,0.00871,0.293668
2472,0.00872,0.293668
2473,0.00873,0.293668
2474,0.00874,0.293668
2475,0.00875,0.293668
2476,0.00876,0.293668
2477,0.00877,0.293668
2478,0.00878,0.293668
2479,0.00879,0.293668
2480,0.0088,0.293668
2481,0.00881,0.293668
2482,0.00882,0.293668
2483,0.00883,0.293668
2484,0.00884,0.293668
2485,0.00885,0.293668
2486,0.00886,0.293668
2487,0.00887,0.293668
2488,0.00888,0.293668
2489,0.00889,0.293668
2490,0.0089,0.293668
2491,0.00891,0.293668
2492,0.00892,0.293668
2493,0.00893,0.293668
2494,0.00894,0.293668
2495,0.00895,0.293668
2496,0.00896,0.293668
2497,0.00897,0.293668
2498,0.00898,0.293668
2499,0.00899,0.293668
2500,0.009,0.293668
2501,0.00901,0.293668
2502,0.00902,0.293668
2503,0.00903,0.293668
2504,0.00904,0.293668
2505,0.00905,0.293668
2506,0.00906,0.293668
2507,0.00907,0.293668
2508,0.00908,0.293668
2509,0.00909,0.293668
2510,0.0091,0.293668
2511,0.00911,0.293668
2512,0.00912,0.293668
2513,0.00913,0.293668
2514,0.00914,0.293668
2515,0.00915,0.293668
2516,0.00916,0.293668
2517,0.00917,0.293668
2518,0.00918,0.293668
2519,0.00919,0.293668
2520,0.0092,0.293668
2521,0.00921,0.293668
2522,0.00922,0.293668
2523,0.00923,0.293668
2524,0.00924,0.293668
2525,0.00925,0.293668
2526,0.00926,0.293668
2527,0.00927,0.293668
2528,0.00928,0.293668
2529,0.00929,0.293668
2530,0.0093,0.293668
2531,0.00931,0.293668
2532,0.00932,0.293668
2533,0.00933,0.293668
2534,0.00934,0.293668
2535,0.00935,0.293668
2536,0.00936,0.293668
2537,0.00937,0.293668
2538,0.00938,0.293668
2539,0.00939,0.293668
2540,0.0094,0.293668
2541,0.00941,0.293668
2542,0.00942,0.293668
2543,0.00943,0.293668
2544,0.00944,0.293668
2545,0.00945,0.293668
2546,0.00946,0.293668
2547,0.00947,0.293668
2548,0.00948,0.293668
2549,0.00949,0.293668
2550,0.0095,0.293668
2551,0.00951,0.293668
2552,0.00952,0.293668
2553,0.00953,0.293668
2554,0.00954,0.293668
2555,0.00955,0.293668
2556,0.00956,0.293668
2557,0.00957,0.293668
2558,0.00958,0.293668
2559,0.00959,0.293668
2560,0.0096,0.293668
2561,0.00961,0.293668
2562,0.00962,0.293668
2563,0.00963,0.293668
2564,0.00964,0.293668
2565,0.00965,0.293668
2566,0.00966,0.293668
2567,0.00967,0.293668
2568,0.00968,0.293668
2569,0.00969,0.293668
2570,0.0097,0.293668
2571,0.00971,0.293668
2572,0.00972,0.293668
2573,0.00973,0.293668
2574,0.00974,0.293668
2575,0.00975,0.293668
2576,0.00976,0.293668
2577,0.00977,0.293668
2578,0.00978,0.293668
2579,0.00979,0.293668
2580,0.0098,0.293668
2581,0.00981,0.293668
2582,0.00982,0.293668
2583,0.00983,0.293668
2584,0.00984,0.293668
2585,0.00985,0.293668
2586,0.00986,0.293668
2587,0.00987,0.293668
2588,0.00988,0.293668
2589,0.00989,0.293668
2590,0.0099,0.293668
2591,0.00991,0.293668
2592,0.00992,0.293668
2593,0.00993,0.293668
2594,0.00994,0.293668
2595,0.00995,0.293668
2596,0.00996,0.293668
2597,0.00997,0.293668
2598,0.00998,0.293668
2599,0.00999,0.293668
2600,0.01,0.293668
2601,0.01001,0.293668
2602,0.01002,0.293668
2603,0.01003,0.293668
2604,0.01004,0.293668
2605,0.01005,0.293668
2606,0.01006,0.293668
2607,0.01007,0.293668
2608,0.01008,0.293668
2609,0.01009,0.293668
2610,0.0101,0.293668
2611,0.01011,0.293668
2612,0.01012,0.293668
2613,0.01013,0.293668
2614,0.01014,0.293668
2615,0.01015,0.293668
2616,0.01016,0.293668
2617,0.01017,0.293668
2618,0.01018,0.293668
2619,0.01019,0.293668
2620,0.0102,0.293668
2621,0.01021,0.293668
2622,0.01022,0.293668
2623,0.01023,0.293668
2624,0.01024,0.293668
2625,0.01025,0.293668
2626,0.01026,0.293668
2627,0.01027,0.293668
2628,0.01028,0.293668
2629,0.01029,0.293668
2630,0.0103,0.293668
2631,0.01031,0.293668
2632,0.01032,0.293668
2633,0.01033,0.293668
2634,0.01034,0.293668
2635,0.01035,0.293668
2636,0.01036,0.293668
2637,0.01037,0.293668
2638,0.01038,0.293668
2639,0.01039,0.293668
2640,0.0104,0.293668
2641,0.01041,0.293668
2642,0.01042,0.293668
2643,0.01043,0.293668
2644,0.01044,0.293668
2645,0.01045,0.293668
2646,0.01046,0.293668
2647,0.01047,0.293668
2648,0.01048,0.293668
2649,0.01049,0.293668
2650,0.0105,0.293668
2651,0.01051,0.293668
2652,0.01052,0.293668
2653,0.01053,0.293668
2654,0.01054,0.293668
2655,0.01055,0.293668
2656,0.01056,0.293668
2657,0.01057,0.293668
2658,0.01058,0.293668
2659,0.01059,0.293668
2660,0.0106,0.293668
2661,0.01061,0.293668
2662,0.01062,0.293668
2663,0.01063,0.293668
2664,0.01064,0.293668
2665,0.01065,0.293668
2666,0.01066,0.293668
2667,0.01067,0.293668
2668,0.01068,0.293668
2669,0.01069,0.293668
2670,0.0107,0.293668
2671,0.01071,0.293668
2672,0.01072,0.293668
2673,0.01073,0.293668
2674,0.01074,0.293668
2675,0.01075,0.293668
2676,0.01076,0.293668
2677,0.01077,0.293668
2678,0.01078,0.293668
2679,0.01079,0.293668
2680,0.0108,0.293668
2681,0.01081,0.293668
2682,0.01082,0.293668
2683,0.01083,0.295255
2684,0.01084,0.295255
2685,0.01085,0.293668
2686,0.01086,0.295255
2687,0.01087,0.293668
2688,0.01088,0.293668
2689,0.01089,0.293668
2690,0.0109,0.293668
2691,0.01091,0.295255
2692,0.01092,0.293668
2693,0.01093,0.293668
2694,0.01094,0.293668
2695,0.01095,0.293668
2696,0.01096,0.293668
2697,0.01097,0.293668
2698,0.01098,0.293668
2699,0.01099,0.293668
2700,0.011,0.293668
2701,0.01101,0.293668
2702,0.01102,0.293668
2703,0.01103,0.293668
2704,0.01104,0.293668
2705,0.01105,0.293668
2706,0.01106,0.293668
2707,0.01107,0.293668
2708,0.01108,0.293668
2709,0.01109,0.293668
2710,0.0111,0.293668
2711,0.01111,0.293668
2712,0.01112,0.293668
2713,0.01113,0.293668
2714,0.01114,0.293668
2715,0.01115,0.293668
2716,0.01116,0.293668
2717,0.01117,0.293668
2718,0.01118,0.293668
2719,0.01119,0.293668
2720,0.0112,0.293668
2721,0.01121,0.293668
2722,0.01122,0.293668
2723,0.01123,0.293668
2724,0.01124,0.293668
2725,0.01125,0.293668
2726,0.01126,0.293668
2727,0.01127,0.293668
2728,0.01128,0.293668
2729,0.01129,0.293668
2730,0.0113,0.293668
2731,0.01131,0.293668
2732,0.01132,0.293668
2733,0.01133,0.293668
2734,0.01134,0.293668
2735,0.01135,0.293668
2736,0.01136,0.293668
2737,0.01137,0.293668
2738,0.01138,0.293668
2739,0.01139,0.293668
2740,0.0114,0.293668
2741,0.01141,0.293668
2742,0.01142,0.293668
2743,0.01143,0.293668
2744,0.01144,0.293668
2745,0.01145,0.293668
2746,0.01146,0.293668
2747,0.01147,0.293668
2748,0.01148,0.293668
2749,0.01149,0.293668
2750,0.0115,0.293668
2751,0.01151,0.293668
2752,0.01152,0.293668
2753,0.01153,0.293668
2754,0.01154,0.293668
2755,0.01155,0.293668
2756,0.01156,0.293668
2757,0.01157,0.293668
2758,0.01158,0.293668
2759,0.01159,0.293668
2760,0.0116,0.293668
2761,0.01161,0.293668
2762,0.01162,0.293668
2763,0.01163,0.293668
2764,0.01164,0.293668
2765,0.01165,0.293668
2766,0.01166,0.293668
2767,0.01167,0.293668
2768,0.01168,0.293668
2769,0.01169,0.293668
2770,0.0117,0.293668
2771,0.01171,0.293668
2772,0.01172,0.293668
2773,0.01173,0.293668
2774,0.01174,0.293668
2775,0.01175,0.293668
2776,0.01176,0.293668
2777,0.01177,0.293668
2778,0.01178,0.293668
2779,0.01179,0.293668
2780,0.0118,0.293668
2781,0.01181,0.293668
2782,0.01182,0.295255
2783,0.01183,0.295255
2784,0.01184,0.295255
2785,0.01185,0.295255
2786,0.01186,0.295255
2787,0.01187,0.295255
2788,0.01188,0.295255
2789,0.01189,0.295255
2790,0.0119,0.295255
2791,0.01191,0.293668
2792,0.01192,0.293668
2793,0.01193,0.296842
2794,0.01194,0.296842
2795,0.01195,0.292081
2796,0.01196,0.295255
2797,0.01197,0.293668
2798,0.01198,0.296842
2799,0.01199,0.295255
2800,0.012,0.293668
2801,0.01201,0.293668
2802,0.01202,0.293668
2803,0.01203,0.293668
2804,0.01204,0.293668
2805,0.01205,0.293668
2806,0.01206,0.293668
2807,0.01207,0.293668
2808,0.01208,0.293668
2809,0.01209,0.293668
2810,0.0121,0.293668
2811,0.01211,0.293668
2812,0.01212,0.293668
2813,0.01213,0.293668
2814,0.01214,0.293668
2815,0.01215,0.293668
2816,0.01216,0.293668
2817,0.01217,0.293668
2818,0.01218,0.293668
2819,0.01219,0.293668
2820,0.0122,0.293668
2821,0.01221,0.293668
2822,0.01222,0.293668
2823,0.01223,0.293668
2824,0.01224,0.293668
2825,0.01225,0.293668
2826,0.01226,0.293668
2827,0.01227,0.293668
2828,0.01228,0.293668
2829,0.01229,0.293668
2830,0.0123,0.293668
2831,0.01231,0.293668
2832,0.01232,0.293668
2833,0.01233,0.293668
2834,0.01234,0.293668
2835,0.01235,0.293668
2836,0.01236,0.293668
2837,0.01237,0.293668
2838,0.01238,0.293668
2839,0.01239,0.293668
2840,0.0124,0.293668
2841,0.01241,0.293668
2842,0.01242,0.293668
2843,0.01243,0.293668
2844,0.01244,0.293668
2845,0.01245,0.293668
2846,0.01246,0.293668
2847,0.01247,0.293668
2848,0.01248,0.293668
2849,0.01249,0.293668
2850,0.0125,0.293668
2851,0.01251,0.293668
2852,0.01252,0.293668
2853,0.01253,0.293668
2854,0.01254,0.293668
2855,0.01255,0.293668
2856,0.01256,0.293668
2857,0.01257,0.293668
2858,0.01258,0.293668
2859,0.01259,0.293668
2860,0.0126,0.293668
2861,0.01261,0.293668
2862,0.01262,0.293668
2863,0.01263,0.293668
2864,0.01264,0.293668
2865,0.01265,0.293668
2866,0.01266,0.293668
2867,0.01267,0.293668
2868,0.01268,0.293668
2869,0.01269,0.293668
2870,0.0127,0.293668
2871,0.01271,0.293668
2872,0.01272,0.293668
2873,0.01273,0.293668
2874,0.01274,0.293668
2875,0.01275,0.293668
2876,0.01276,0.293668
2877,0.01277,0.293668
2878,0.01278,0.293668
2879,0.01279,0.293668
2880,0.0128,0.293668
2881,0.01281,0.293668
2882,0.01282,0.295255
2883,0.01283,0.295255
2884,0.01284,0.295255
2885,0.01285,0.295255
2886,0.01286,0.296842
2887,0.01287,0.293668
2888,0.01288,0.293668
2889,0.01289,0.293668
2890,0.0129,0.293668
2891,0.01291,0.293668
2892,0.01292,0.295255
2893,0.01293,0.293668
2894,0.01294,0.293668
2895,0.01295,0.293668
2896,0.01296,0.293668
2897,0.01297,0.293668
2898,0.01298,0.293668
2899,0.01299,0.293668
2900,0.013,0.293668
2901,0.01301,0.293668
2902,0.01302,0.293668
2903,0.01303,0.293668
2904,0.01304,0.293668
2905,0.01305,0.293668
2906,0.01306,0.293668
2907,0.01307,0.293668
2908,0.01308,0.293668
2909,0.01309,0.295255
2910,0.0131,0.293668
2911,0.01311,0.293668
2912,0.01312,0.293668
2913,0.01313,0.296842
2914,0.01314,0.293668
2915,0.01315,0.293668
2916,0.01316,0.293668
2917,0.01317,0.293668
2918,0.01318,0.293668
2919,0.01319,0.293668
2920,0.0132,0.293668
2921,0.01321,0.293668
2922,0.01322,0.293668
2923,0.01323,0.295255
2924,0.01324,0.293668
2925,0.01325,0.293668
2926,0.01326,0.293668
2927,0.01327,0.293668
2928,0.01328,0.293668
2929,0.01329,0.293668
2930,0.0133,0.293668
2931,0.01331,0.293668
2932,0.01332,0.293668
2933,0.01333,0.293668
2934,0.01334,0.293668
2935,0.01335,0.293668
2936,0.01336,0.293668
2937,0.01337,0.293668
2938,0.01338,0.293668
2939,0.01339,0.293668
2940,0.0134,0.293668
2941,0.01341,0.293668
2942,0.01342,0.293668
2943,0.01343,0.293668
2944,0.01344,0.293668
2945,0.01345,0.293668
2946,0.01346,0.293668
2947,0.01347,0.293668
2948,0.01348,0.293668
2949,0.01349,0.293668
2950,0.0135,0.293668
2951,0.01351,0.293668
2952,0.01352,0.293668
2953,0.01353,0.293668
2954,0.01354,0.293668
2955,0.01355,0.293668
2956,0.01356,0.293668
2957,0.01357,0.293668
2958,0.01358,0.293668
2959,0.01359,0.293668
2960,0.0136,0.293668
2961,0.01361,0.293668
2962,0.01362,0.293668
2963,0.01363,0.293668
2964,0.01364,0.293668
2965,0.01365,0.293668
2966,0.01366,0.293668
2967,0.01367,0.293668
2968,0.01368,0.293668
2969,0.01369,0.293668
2970,0.0137,0.293668
2971,0.01371,0.293668
2972,0.01372,0.293668
2973,0.01373,0.293668
2974,0.01374,0.293668
2975,0.01375,0.293668
2976,0.01376,0.293668
2977,0.01377,0.293668
2978,0.01378,0.293668
2979,0.01379,0.293668
2980,0.0138,0.293668
2981,0.01381,0.293668
2982,0.01382,0.295255
2983,0.01383,0.295255
2984,0.01384,0.295255
2985,0.01385,0.295255
2986,0.01386,0.295255
2987,0.01387,0.295255
2988,0.01388,0.295255
2989,0.01389,0.295255
2990,0.0139,0.295255
2991,0.01391,0.295255
2992,0.01392,0.295255
2993,0.01393,0.295255
2994,0.01394,0.295255
2995,0.01395,0.296842
2996,0.01396,0.293668
2997,0.01397,0.295255
2998,0.01398,0.295255
2999,0.01399,0.295255
3000,0.014,0.295255
3001,0.01401,0.295255
3002,0.01402,0.295255
3003,0.01403,0.295255
3004,0.01404,0.295255
3005,0.01405,0.295255
3006,0.01406,0.293668
3007,0.01407,0.296842
3008,0.01408,0.295255
3009,0.01409,0.296842
3010,0.0141,0.293668
3011,0.01411,0.296842
3012,0.01412,0.293668
3013,0.01413,0.295255
3014,0.01414,0.295255
3015,0.01415,0.295255
3016,0.01416,0.295255
3017,0.01417,0.296842
3018,0.01418,0.292081
3019,0.01419,0.295255
3020,0.0142,0.293668
3021,0.01421,0.296842
3022,0.01422,0.295255
3023,0.01423,0.296842
3024,0.01424,0.293668
3025,0.01425,0.295255
3026,0.01426,0.295255
3027,0.01427,0.295255
3028,0.01428,0.295255
3029,0.01429,0.295255
3030,0.0143,0.295255
3031,0.01431,0.295255
3032,0.01432,0.295255
3033,0.01433,0.295255
3034,0.01434,0.296842
3035,0.01435,0.293668
3036,0.01436,0.293668
3037,0.01437,0.293668
3038,0.01438,0.293668
3039,0.01439,0.295255
3040,0.0144,0.295255
3041,0.01441,0.293668
3042,0.01442,0.293668
3043,0.01443,0.295255
3044,0.01444,0.293668
3045,0.01445,0.295255
3046,0.01446,0.295255
3047,0.01447,0.292081
3048,0.01448,0.295255
3049,0.01449,0.293668
3050,0.0145,0.293668
3051,0.01451,0.293668
3052,0.01452,0.293668
3053,0.01453,0.293668
3054,0.01454,0.293668
3055,0.01455,0.293668
3056,0.01456,0.293668
3057,0.01457,0.293668
3058,0.01458,0.293668
3059,0.01459,0.293668
3060,0.0146,0.293668
3061,0.01461,0.293668
3062,0.01462,0.293668
3063,0.01463,0.293668
3064,0.01464,0.293668
3065,0.01465,0.293668
3066,0.01466,0.293668
3067,0.01467,0.293668
3068,0.01468,0.293668
3069,0.01469,0.293668
3070,0.0147,0.293668
3071,0.01471,0.293668
3072,0.01472,0.293668
3073,0.01473,0.293668
3074,0.01474,0.293668
3075,0.01475,0.293668
3076,0.01476,0.293668
3077,0.01477,0.293668
3078,0.01478,0.293668
3079,0.01479,0.293668
3080,0.0148,0.293668
3081,0.01481,0.293668
3082,0.01482,0.295255
3083,0.01483,0.295255
3084,0.01484,0.295255
3085,0.01485,0.295255
3086,0.01486,0.295255
3087,0.01487,0.295255
3088,0.01488,0.295255
3089,0.01489,0.295255
3090,0.0149,0.295255
3091,0.01491,0.295255
3092,0.01492,0.295255
3093,0.01493,0.295255
3094,0.01494,0.295255
3095,0.01495,0.295255
3096,0.01496,0.295255
3097,0.01497,0.295255
3098,0.01498,0.295255
3099,0.01499,0.295255
3100,0.015,0.293668
3101,0.01501,0.296842
3102,0.01502,0.295255
3103,0.01503,0.296842
3104,0.01504,0.293668
3105,0.01505,0.295255
3106,0.01506,0.293668
3107,0.01507,0.293668
3108,0.01508,0.293668
3109,0.01509,0.296842
3110,0.0151,0.295255
3111,0.01511,0.295255
3112,0.01512,0.295255
3113,0.01513,0.295255
3114,0.01514,0.293668
3115,0.01515,0.293668
3116,0.01516,0.293668
3117,0.01517,0.296842
3118,0.01518,0.295255
3119,0.01519,0.295255
3120,0.0152,0.293668
3121,0.01521,0.293668
3122,0.01522,0.293668
3123,0.01523,0.293668
3124,0.01524,0.293668
3125,0.01525,0.293668
3126,0.01526,0.293668
3127,0.01527,0.293668
3128,0.01528,0.293668
3129,0.01529,0.296842
3130,0.0153,0.293668
3131,0.01531,0.295255
3132,0.01532,0.293668
3133,0.01533,0.293668
3134,0.01534,0.293668
3135,0.01535,0.293668
3136,0.01536,0.293668
3137,0.01537,0.293668
3138,0.01538,0.293668
3139,0.01539,0.295255
3140,0.0154,0.295255
3141,0.01541,0.296842
3142,0.01542,0.293668
3143,0.01543,0.293668
3144,0.01544,0.296842
3145,0.01545,0.295255
3146,0.01546,0.295255
3147,0.01547,0.295255
3148,0.01548,0.293668
3149,0.01549,0.295255
3150,0.0155,0.295255
3151,0.01551,0.295255
3152,0.01552,0.295255
3153,0.01553,0.295255
3154,0.01554,0.293668
3155,0.01555,0.293668
3156,0.01556,0.295255
3157,0.01557,0.295255
3158,0.01558,0.295255
3159,0.01559,0.295255
3160,0.0156,0.295255
3161,0.01561,0.296842
3162,0.01562,0.293668
3163,0.01563,0.293668
3164,0.01564,0.295255
3165,0.01565,0.295255
3166,0.01566,0.293668
3167,0.01567,0.295255
3168,0.01568,0.295255
3169,0.01569,0.293668
3170,0.0157,0.293668
3171,0.01571,0.293668
3172,0.01572,0.293668
3173,0.01573,0.293668
3174,0.01574,0.293668
3175,0.01575,0.293668
3176,0.01576,0.293668
3177,0.01577,0.293668
3178,0.01578,0.293668
3179,0.01579,0.293668
3180,0.0158,0.293668
3181,0.01581,0.293668
3182,0.01582,0.295255
3183,0.01583,0.295255
3184,0.01584,0.295255
3185,0.01585,0.295255
3186,0.01586,0.295255
3187,0.01587,0.295255
3188,0.01588,0.295255
3189,0.01589,0.295255
3190,0.0159,0.295255
3191,0.01591,0.295255
3192,0.01592,0.295255
3193,0.01593,0.295255
3194,0.01594,0.295255
3195,0.01595,0.295255
3196,0.01596,0.295255
3197,0.01597,0.295255
3198,0.01598,0.295255
3199,0.01599,0.295255
